Raw		RawSmooth		RawPerfect		IdealRemRate		Ideal Reflectance		FFT Modulus		FFT Phase
0.000000e+000	6.100000e+001	0.000000	66.000000	
1.000000e+000	6.200000e+001	1.000000	66.000000	
2.000000e+000	6.300000e+001	2.000000	66.000000	
3.000000e+000	6.300000e+001	3.000000	66.000000	
4.000000e+000	6.400000e+001	4.000000	66.000000	
5.000000e+000	6.300000e+001	5.000000	66.000000	
6.000000e+000	6.400000e+001	6.000000	66.000000	
7.000000e+000	6.300000e+001	7.000000	66.000000	
8.000000e+000	6.500000e+001	8.000000	66.000000	
9.000000e+000	6.500000e+001	9.000000	66.000000	
1.000000e+001	6.500000e+001	10.000000	66.000000	
1.100000e+001	6.600000e+001	11.000000	66.000000	
1.200000e+001	6.500000e+001	12.000000	66.000000	
1.300000e+001	6.500000e+001	13.000000	66.000000	
1.400000e+001	6.600000e+001	14.000000	66.000000	
1.500000e+001	6.600000e+001	15.000000	66.064516	
1.600000e+001	6.800000e+001	16.000000	66.096774	
1.700000e+001	6.700000e+001	17.000000	66.129032	
1.800000e+001	6.500000e+001	18.000000	66.193548	
1.900000e+001	6.500000e+001	19.000000	66.258065	
2.000000e+001	6.500000e+001	20.000000	66.322581	
2.100000e+001	6.500000e+001	21.000000	66.419355	
2.200000e+001	6.400000e+001	22.000000	66.516129	
2.300000e+001	6.300000e+001	23.000000	66.645161	
2.400000e+001	6.500000e+001	24.000000	66.774194	
2.500000e+001	6.600000e+001	25.000000	66.903226	
2.600000e+001	6.600000e+001	26.000000	67.032258	
2.700000e+001	6.700000e+001	27.000000	67.161290	
2.800000e+001	6.800000e+001	28.000000	67.290323	
2.900000e+001	6.700000e+001	29.000000	67.451613	
3.000000e+001	6.700000e+001	30.000000	67.612903	
3.100000e+001	6.600000e+001	31.000000	67.774194	
3.200000e+001	6.500000e+001	32.000000	67.935484	
3.300000e+001	6.400000e+001	33.000000	68.096774	
3.400000e+001	6.600000e+001	34.000000	68.258065	
3.500000e+001	6.800000e+001	35.000000	68.419355	
3.600000e+001	7.200000e+001	36.000000	68.580645	
3.700000e+001	7.300000e+001	37.000000	68.741935	
3.800000e+001	7.300000e+001	38.000000	68.903226	
3.900000e+001	7.100000e+001	39.000000	69.064516	
4.000000e+001	7.200000e+001	40.000000	69.258065	
4.100000e+001	7.200000e+001	41.000000	69.451613	
4.200000e+001	7.000000e+001	42.000000	69.645161	
4.300000e+001	7.000000e+001	43.000000	69.838710	
4.400000e+001	6.900000e+001	44.000000	70.032258	
4.500000e+001	7.000000e+001	45.000000	70.193548	
4.600000e+001	6.900000e+001	46.000000	70.354839	
4.700000e+001	7.000000e+001	47.000000	70.548387	
4.800000e+001	7.200000e+001	48.000000	70.741935	
4.900000e+001	7.200000e+001	49.000000	70.903226	
5.000000e+001	7.100000e+001	50.000000	71.064516	
5.100000e+001	7.100000e+001	51.000000	71.225806	
5.200000e+001	7.100000e+001	52.000000	71.387097	
5.300000e+001	7.100000e+001	53.000000	71.548387	
5.400000e+001	7.100000e+001	54.000000	71.677419	
5.500000e+001	7.100000e+001	55.000000	71.806452	
5.600000e+001	7.200000e+001	56.000000	71.935484	
5.700000e+001	7.100000e+001	57.000000	72.064516	
5.800000e+001	7.100000e+001	58.000000	72.225806	
5.900000e+001	7.000000e+001	59.000000	72.387097	
6.000000e+001	7.000000e+001	60.000000	72.516129	
6.100000e+001	7.100000e+001	61.000000	72.645161	
6.200000e+001	7.400000e+001	62.000000	72.774194	
6.300000e+001	7.500000e+001	63.000000	72.903226	
6.400000e+001	7.600000e+001	64.000000	73.064516	
6.500000e+001	7.500000e+001	65.000000	73.225806	
6.600000e+001	7.400000e+001	66.000000	73.387097	
6.700000e+001	7.300000e+001	67.000000	73.548387	
6.800000e+001	7.300000e+001	68.000000	73.709677	
6.900000e+001	7.400000e+001	69.000000	73.903226	
7.000000e+001	7.600000e+001	70.000000	74.096774	
7.100000e+001	7.700000e+001	71.000000	74.258065	
7.200000e+001	7.600000e+001	72.000000	74.419355	
7.300000e+001	7.400000e+001	73.000000	74.580645	
7.400000e+001	7.100000e+001	74.000000	74.741935	
7.500000e+001	7.200000e+001	75.000000	74.903226	
7.600000e+001	7.500000e+001	76.000000	75.064516	
7.700000e+001	7.700000e+001	77.000000	75.225806	
7.800000e+001	7.500000e+001	78.000000	75.354839	
7.900000e+001	7.300000e+001	79.000000	75.483871	
8.000000e+001	8.000000e+001	80.000000	75.612903	
8.100000e+001	8.100000e+001	81.000000	75.741935	
8.200000e+001	8.000000e+001	82.000000	75.903226	
8.300000e+001	8.000000e+001	83.000000	76.032258	
8.400000e+001	7.800000e+001	84.000000	76.161290	
8.500000e+001	7.700000e+001	85.000000	76.290323	
8.600000e+001	7.500000e+001	86.000000	76.419355	
8.700000e+001	7.400000e+001	87.000000	76.548387	
8.800000e+001	7.400000e+001	88.000000	76.677419	
8.900000e+001	7.500000e+001	89.000000	76.774194	
9.000000e+001	7.600000e+001	90.000000	76.903226	
9.100000e+001	7.700000e+001	91.000000	77.032258	
9.200000e+001	7.800000e+001	92.000000	77.161290	
9.300000e+001	7.900000e+001	93.000000	77.290323	
9.400000e+001	7.800000e+001	94.000000	77.419355	
9.500000e+001	7.700000e+001	95.000000	77.516129	
9.600000e+001	7.900000e+001	96.000000	77.612903	
9.700000e+001	7.800000e+001	97.000000	77.709677	
9.800000e+001	7.700000e+001	98.000000	77.806452	
9.900000e+001	7.600000e+001	99.000000	77.903226	
1.000000e+002	7.700000e+001	100.000000	78.000000	
1.010000e+002	7.700000e+001	101.000000	78.096774	
1.020000e+002	7.800000e+001	102.000000	78.193548	
1.030000e+002	7.800000e+001	103.000000	78.290323	
1.040000e+002	7.700000e+001	104.000000	78.419355	
1.050000e+002	7.800000e+001	105.000000	78.548387	
1.060000e+002	7.900000e+001	106.000000	78.709677	
1.070000e+002	7.900000e+001	107.000000	78.870968	
1.080000e+002	7.800000e+001	108.000000	79.032258	
1.090000e+002	7.900000e+001	109.000000	79.193548	
1.100000e+002	8.000000e+001	110.000000	79.354839	
1.110000e+002	8.000000e+001	111.000000	79.516129	
1.120000e+002	7.500000e+001	112.000000	79.677419	
1.130000e+002	7.400000e+001	113.000000	79.806452	
1.140000e+002	7.500000e+001	114.000000	79.967742	
1.150000e+002	7.500000e+001	115.000000	80.129032	
1.160000e+002	7.900000e+001	116.000000	80.290323	
1.170000e+002	8.000000e+001	117.000000	80.483871	
1.180000e+002	8.200000e+001	118.000000	80.677419	
1.190000e+002	8.200000e+001	119.000000	80.903226	
1.200000e+002	8.200000e+001	120.000000	81.129032	
1.210000e+002	8.200000e+001	121.000000	81.354839	
1.220000e+002	8.100000e+001	122.000000	81.580645	
1.230000e+002	8.200000e+001	123.000000	81.838710	
1.240000e+002	8.100000e+001	124.000000	82.096774	
1.250000e+002	8.200000e+001	125.000000	82.354839	
1.260000e+002	8.200000e+001	126.000000	82.612903	
1.270000e+002	8.300000e+001	127.000000	82.870968	
1.280000e+002	8.000000e+001	128.000000	83.129032	
1.290000e+002	8.200000e+001	129.000000	83.419355	
1.300000e+002	8.400000e+001	130.000000	83.709677	
1.310000e+002	8.600000e+001	131.000000	83.967742	
1.320000e+002	8.500000e+001	132.000000	84.225806	
1.330000e+002	8.400000e+001	133.000000	84.483871	
1.340000e+002	8.300000e+001	134.000000	84.741935	
1.350000e+002	8.300000e+001	135.000000	84.967742	
1.360000e+002	8.700000e+001	136.000000	85.225806	
1.370000e+002	9.000000e+001	137.000000	85.451613	
1.380000e+002	8.900000e+001	138.000000	85.677419	
1.390000e+002	8.500000e+001	139.000000	85.903226	
1.400000e+002	8.700000e+001	140.000000	86.161290	
1.410000e+002	9.100000e+001	141.000000	86.419355	
1.420000e+002	9.100000e+001	142.000000	86.677419	
1.430000e+002	8.600000e+001	143.000000	86.935484	
1.440000e+002	8.700000e+001	144.000000	87.193548	
1.450000e+002	8.700000e+001	145.000000	87.419355	
1.460000e+002	8.700000e+001	146.000000	87.677419	
1.470000e+002	8.700000e+001	147.000000	87.935484	
1.480000e+002	8.800000e+001	148.000000	88.161290	
1.490000e+002	8.800000e+001	149.000000	88.387097	
1.500000e+002	8.800000e+001	150.000000	88.580645	
1.510000e+002	8.800000e+001	151.000000	88.774194	
1.520000e+002	9.400000e+001	152.000000	88.935484	
1.530000e+002	9.100000e+001	153.000000	89.096774	
1.540000e+002	8.800000e+001	154.000000	89.225806	
1.550000e+002	8.900000e+001	155.000000	89.354839	
1.560000e+002	9.100000e+001	156.000000	89.483871	
1.570000e+002	9.200000e+001	157.000000	89.645161	
1.580000e+002	9.100000e+001	158.000000	89.806452	
1.590000e+002	8.900000e+001	159.000000	89.967742	
1.600000e+002	8.800000e+001	160.000000	90.096774	
1.610000e+002	8.800000e+001	161.000000	90.225806	
1.620000e+002	8.900000e+001	162.000000	90.354839	
1.630000e+002	9.000000e+001	163.000000	90.483871	
1.640000e+002	9.000000e+001	164.000000	90.645161	
1.650000e+002	9.000000e+001	165.000000	90.806452	
1.660000e+002	9.200000e+001	166.000000	90.967742	
1.670000e+002	9.200000e+001	167.000000	91.129032	
1.680000e+002	9.000000e+001	168.000000	91.290323	
1.690000e+002	9.000000e+001	169.000000	91.451613	
1.700000e+002	9.100000e+001	170.000000	91.612903	
1.710000e+002	9.100000e+001	171.000000	91.741935	
1.720000e+002	9.100000e+001	172.000000	91.870968	
1.730000e+002	9.100000e+001	173.000000	92.000000	
1.740000e+002	9.100000e+001	174.000000	92.161290	
1.750000e+002	9.100000e+001	175.000000	92.322581	
1.760000e+002	9.200000e+001	176.000000	92.483871	
1.770000e+002	9.200000e+001	177.000000	92.612903	
1.780000e+002	9.300000e+001	178.000000	92.741935	
1.790000e+002	9.500000e+001	179.000000	92.870968	
1.800000e+002	9.700000e+001	180.000000	93.000000	
1.810000e+002	9.600000e+001	181.000000	93.129032	
1.820000e+002	9.400000e+001	182.000000	93.258065	
1.830000e+002	9.200000e+001	183.000000	93.387097	
1.840000e+002	9.300000e+001	184.000000	93.548387	
1.850000e+002	9.400000e+001	185.000000	93.709677	
1.860000e+002	9.600000e+001	186.000000	93.870968	
1.870000e+002	9.600000e+001	187.000000	94.032258	
1.880000e+002	9.600000e+001	188.000000	94.161290	
1.890000e+002	9.500000e+001	189.000000	94.290323	
1.900000e+002	9.400000e+001	190.000000	94.419355	
1.910000e+002	9.300000e+001	191.000000	94.548387	
1.920000e+002	9.400000e+001	192.000000	94.677419	
1.930000e+002	9.500000e+001	193.000000	94.838710	
1.940000e+002	9.500000e+001	194.000000	95.000000	
1.950000e+002	9.500000e+001	195.000000	95.129032	
1.960000e+002	9.500000e+001	196.000000	95.258065	
1.970000e+002	9.400000e+001	197.000000	95.419355	
1.980000e+002	9.600000e+001	198.000000	95.548387	
1.990000e+002	9.700000e+001	199.000000	95.677419	
2.000000e+002	9.700000e+001	200.000000	95.806452	
2.010000e+002	9.700000e+001	201.000000	95.967742	
2.020000e+002	9.800000e+001	202.000000	96.129032	
2.030000e+002	9.900000e+001	203.000000	96.290323	
2.040000e+002	9.900000e+001	204.000000	96.451613	
2.050000e+002	9.900000e+001	205.000000	96.612903	
2.060000e+002	1.010000e+002	206.000000	96.774194	
2.070000e+002	1.010000e+002	207.000000	96.967742	
2.080000e+002	9.300000e+001	208.000000	97.161290	
2.090000e+002	9.300000e+001	209.000000	97.354839	
2.100000e+002	9.500000e+001	210.000000	97.548387	
2.110000e+002	9.500000e+001	211.000000	97.741935	
2.120000e+002	9.600000e+001	212.000000	98.000000	
2.130000e+002	9.700000e+001	213.000000	98.290323	
2.140000e+002	9.900000e+001	214.000000	98.580645	
2.150000e+002	1.000000e+002	215.000000	98.838710	
2.160000e+002	1.010000e+002	216.000000	99.096774	
2.170000e+002	1.010000e+002	217.000000	99.354839	
2.180000e+002	1.000000e+002	218.000000	99.612903	
2.190000e+002	1.010000e+002	219.000000	99.870968	
2.200000e+002	9.800000e+001	220.000000	100.129032	
2.210000e+002	9.600000e+001	221.000000	100.419355	
2.220000e+002	9.300000e+001	222.000000	100.709677	
2.230000e+002	9.400000e+001	223.000000	101.000000	
2.240000e+002	9.800000e+001	224.000000	101.258065	
2.250000e+002	9.400000e+001	225.000000	101.516129	
2.260000e+002	9.800000e+001	226.000000	101.774194	
2.270000e+002	1.030000e+002	227.000000	102.064516	
2.280000e+002	1.080000e+002	228.000000	102.322581	
2.290000e+002	1.040000e+002	229.000000	102.580645	
2.300000e+002	1.040000e+002	230.000000	102.838710	
2.310000e+002	1.060000e+002	231.000000	103.096774	
2.320000e+002	1.050000e+002	232.000000	103.322581	
2.330000e+002	1.040000e+002	233.000000	103.548387	
2.340000e+002	1.040000e+002	234.000000	103.774194	
2.350000e+002	1.040000e+002	235.000000	104.000000	
2.360000e+002	1.040000e+002	236.000000	104.225806	
2.370000e+002	1.040000e+002	237.000000	104.451613	
2.380000e+002	1.050000e+002	238.000000	104.645161	
2.390000e+002	1.040000e+002	239.000000	104.838710	
2.400000e+002	1.050000e+002	240.000000	105.032258	
2.410000e+002	1.050000e+002	241.000000	105.225806	
2.420000e+002	1.060000e+002	242.000000	105.419355	
2.430000e+002	1.060000e+002	243.000000	105.580645	
2.440000e+002	1.070000e+002	244.000000	105.709677	
2.450000e+002	1.070000e+002	245.000000	105.838710	
2.460000e+002	1.080000e+002	246.000000	105.967742	
2.470000e+002	1.080000e+002	247.000000	106.096774	
2.480000e+002	1.100000e+002	248.000000	106.225806	
2.490000e+002	1.050000e+002	249.000000	106.354839	
2.500000e+002	1.050000e+002	250.000000	106.483871	
2.510000e+002	1.100000e+002	251.000000	106.645161	
2.520000e+002	1.130000e+002	252.000000	106.774194	
2.530000e+002	1.110000e+002	253.000000	106.903226	
2.540000e+002	1.090000e+002	254.000000	107.064516	
2.550000e+002	1.100000e+002	255.000000	107.225806	
2.560000e+002	1.080000e+002	256.000000	107.387097	
2.570000e+002	1.080000e+002	257.000000	107.548387	
2.580000e+002	1.070000e+002	258.000000	107.677419	
2.590000e+002	1.060000e+002	259.000000	107.838710	
2.600000e+002	1.070000e+002	260.000000	108.000000	
2.610000e+002	1.080000e+002	261.000000	108.161290	
2.620000e+002	1.090000e+002	262.000000	108.322581	
2.630000e+002	1.090000e+002	263.000000	108.483871	
2.640000e+002	1.080000e+002	264.000000	108.645161	
2.650000e+002	1.080000e+002	265.000000	108.806452	
2.660000e+002	1.060000e+002	266.000000	108.967742	
2.670000e+002	1.060000e+002	267.000000	109.096774	
2.680000e+002	1.060000e+002	268.000000	109.225806	
2.690000e+002	1.060000e+002	269.000000	109.354839	
2.700000e+002	1.070000e+002	270.000000	109.516129	
2.710000e+002	1.070000e+002	271.000000	109.677419	
2.720000e+002	1.060000e+002	272.000000	109.838710	
2.730000e+002	1.080000e+002	273.000000	110.000000	
2.740000e+002	1.110000e+002	274.000000	110.129032	
2.750000e+002	1.120000e+002	275.000000	110.258065	
2.760000e+002	1.110000e+002	276.000000	110.387097	
2.770000e+002	1.100000e+002	277.000000	110.516129	
2.780000e+002	1.120000e+002	278.000000	110.645161	
2.790000e+002	1.130000e+002	279.000000	110.774194	
2.800000e+002	1.120000e+002	280.000000	110.903226	
2.810000e+002	1.120000e+002	281.000000	111.032258	
2.820000e+002	1.120000e+002	282.000000	111.161290	
2.830000e+002	1.130000e+002	283.000000	111.290323	
2.840000e+002	1.120000e+002	284.000000	111.419355	
2.850000e+002	1.110000e+002	285.000000	111.516129	
2.860000e+002	1.110000e+002	286.000000	111.612903	
2.870000e+002	1.110000e+002	287.000000	111.709677	
2.880000e+002	1.100000e+002	288.000000	111.838710	
2.890000e+002	1.120000e+002	289.000000	111.967742	
2.900000e+002	1.140000e+002	290.000000	112.064516	
2.910000e+002	1.150000e+002	291.000000	112.193548	
2.920000e+002	1.140000e+002	292.000000	112.322581	
2.930000e+002	1.140000e+002	293.000000	112.451613	
2.940000e+002	1.160000e+002	294.000000	112.580645	
2.950000e+002	1.160000e+002	295.000000	112.709677	
2.960000e+002	1.120000e+002	296.000000	112.838710	
2.970000e+002	1.120000e+002	297.000000	112.967742	
2.980000e+002	1.150000e+002	298.000000	113.129032	
2.990000e+002	1.150000e+002	299.000000	113.290323	
3.000000e+002	1.150000e+002	300.000000	113.451613	
3.010000e+002	1.150000e+002	301.000000	113.580645	
3.020000e+002	1.120000e+002	302.000000	113.709677	
3.030000e+002	1.120000e+002	303.000000	113.838710	
3.040000e+002	1.050000e+002	304.000000	114.000000	
3.050000e+002	1.030000e+002	305.000000	114.161290	
3.060000e+002	1.050000e+002	306.000000	114.322581	
3.070000e+002	1.070000e+002	307.000000	114.483871	
3.080000e+002	1.130000e+002	308.000000	114.677419	
3.090000e+002	1.150000e+002	309.000000	114.870968	
3.100000e+002	1.160000e+002	310.000000	115.064516	
3.110000e+002	1.150000e+002	311.000000	115.258065	
3.120000e+002	1.170000e+002	312.000000	115.451613	
3.130000e+002	1.180000e+002	313.000000	115.612903	
3.140000e+002	1.170000e+002	314.000000	115.774194	
3.150000e+002	1.160000e+002	315.000000	115.967742	
3.160000e+002	1.130000e+002	316.000000	116.161290	
3.170000e+002	1.130000e+002	317.000000	116.354839	
3.180000e+002	1.120000e+002	318.000000	116.548387	
3.190000e+002	1.130000e+002	319.000000	116.741935	
3.200000e+002	1.160000e+002	320.000000	116.935484	
3.210000e+002	1.180000e+002	321.000000	117.129032	
3.220000e+002	1.190000e+002	322.000000	117.322581	
3.230000e+002	1.180000e+002	323.000000	117.516129	
3.240000e+002	1.220000e+002	324.000000	117.709677	
3.250000e+002	1.260000e+002	325.000000	117.903226	
3.260000e+002	1.240000e+002	326.000000	118.096774	
3.270000e+002	1.200000e+002	327.000000	118.290323	
3.280000e+002	1.190000e+002	328.000000	118.483871	
3.290000e+002	1.240000e+002	329.000000	118.645161	
3.300000e+002	1.220000e+002	330.000000	118.806452	
3.310000e+002	1.180000e+002	331.000000	118.967742	
3.320000e+002	1.160000e+002	332.000000	119.129032	
3.330000e+002	1.190000e+002	333.000000	119.322581	
3.340000e+002	1.210000e+002	334.000000	119.516129	
3.350000e+002	1.180000e+002	335.000000	119.677419	
3.360000e+002	1.220000e+002	336.000000	119.838710	
3.370000e+002	1.220000e+002	337.000000	120.000000	
3.380000e+002	1.220000e+002	338.000000	120.161290	
3.390000e+002	1.220000e+002	339.000000	120.290323	
3.400000e+002	1.220000e+002	340.000000	120.419355	
3.410000e+002	1.220000e+002	341.000000	120.548387	
3.420000e+002	1.210000e+002	342.000000	120.677419	
3.430000e+002	1.210000e+002	343.000000	120.806452	
3.440000e+002	1.200000e+002	344.000000	120.967742	
3.450000e+002	1.180000e+002	345.000000	121.129032	
3.460000e+002	1.160000e+002	346.000000	121.258065	
3.470000e+002	1.160000e+002	347.000000	121.387097	
3.480000e+002	1.180000e+002	348.000000	121.516129	
3.490000e+002	1.190000e+002	349.000000	121.677419	
3.500000e+002	1.200000e+002	350.000000	121.806452	
3.510000e+002	1.210000e+002	351.000000	121.935484	
3.520000e+002	1.210000e+002	352.000000	122.064516	
3.530000e+002	1.210000e+002	353.000000	122.193548	
3.540000e+002	1.230000e+002	354.000000	122.322581	
3.550000e+002	1.240000e+002	355.000000	122.451613	
3.560000e+002	1.240000e+002	356.000000	122.580645	
3.570000e+002	1.250000e+002	357.000000	122.709677	
3.580000e+002	1.270000e+002	358.000000	122.870968	
3.590000e+002	1.270000e+002	359.000000	123.032258	
3.600000e+002	1.290000e+002	360.000000	123.193548	
3.610000e+002	1.250000e+002	361.000000	123.387097	
3.620000e+002	1.230000e+002	362.000000	123.580645	
3.630000e+002	1.230000e+002	363.000000	123.774194	
3.640000e+002	1.210000e+002	364.000000	123.935484	
3.650000e+002	1.180000e+002	365.000000	124.096774	
3.660000e+002	1.210000e+002	366.000000	124.290323	
3.670000e+002	1.260000e+002	367.000000	124.483871	
3.680000e+002	1.200000e+002	368.000000	124.677419	
3.690000e+002	1.230000e+002	369.000000	124.870968	
3.700000e+002	1.240000e+002	370.000000	125.096774	
3.710000e+002	1.210000e+002	371.000000	125.322581	
3.720000e+002	1.230000e+002	372.000000	125.548387	
3.730000e+002	1.270000e+002	373.000000	125.774194	
3.740000e+002	1.290000e+002	374.000000	126.000000	
3.750000e+002	1.240000e+002	375.000000	126.193548	
3.760000e+002	1.290000e+002	376.000000	126.419355	
3.770000e+002	1.270000e+002	377.000000	126.645161	
3.780000e+002	1.250000e+002	378.000000	126.870968	
3.790000e+002	1.250000e+002	379.000000	127.096774	
3.800000e+002	1.260000e+002	380.000000	127.290323	
3.810000e+002	1.280000e+002	381.000000	127.516129	
3.820000e+002	1.290000e+002	382.000000	127.741935	
3.830000e+002	1.280000e+002	383.000000	127.967742	
3.840000e+002	1.300000e+002	384.000000	128.193548	
3.850000e+002	1.290000e+002	385.000000	128.419355	
3.860000e+002	1.280000e+002	386.000000	128.645161	
3.870000e+002	1.270000e+002	387.000000	128.903226	
3.880000e+002	1.250000e+002	388.000000	129.161290	
3.890000e+002	1.260000e+002	389.000000	129.387097	
3.900000e+002	1.280000e+002	390.000000	129.612903	
3.910000e+002	1.300000e+002	391.000000	129.838710	
3.920000e+002	1.300000e+002	392.000000	130.064516	
3.930000e+002	1.310000e+002	393.000000	130.290323	
3.940000e+002	1.330000e+002	394.000000	130.548387	
3.950000e+002	1.320000e+002	395.000000	130.806452	
3.960000e+002	1.300000e+002	396.000000	131.064516	
3.970000e+002	1.290000e+002	397.000000	131.290323	
3.980000e+002	1.300000e+002	398.000000	131.516129	
3.990000e+002	1.310000e+002	399.000000	131.774194	
4.000000e+002	1.340000e+002	400.000000	132.032258	
4.010000e+002	1.350000e+002	401.000000	132.290323	
4.020000e+002	1.330000e+002	402.000000	132.548387	
4.030000e+002	1.330000e+002	403.000000	132.806452	
4.040000e+002	1.320000e+002	404.000000	133.064516	
4.050000e+002	1.330000e+002	405.000000	133.354839	
4.060000e+002	1.350000e+002	406.000000	133.645161	
4.070000e+002	1.370000e+002	407.000000	133.903226	
4.080000e+002	1.370000e+002	408.000000	134.193548	
4.090000e+002	1.350000e+002	409.000000	134.483871	
4.100000e+002	1.350000e+002	410.000000	134.774194	
4.110000e+002	1.360000e+002	411.000000	135.064516	
4.120000e+002	1.370000e+002	412.000000	135.322581	
4.130000e+002	1.350000e+002	413.000000	135.580645	
4.140000e+002	1.320000e+002	414.000000	135.870968	
4.150000e+002	1.310000e+002	415.000000	136.129032	
4.160000e+002	1.340000e+002	416.000000	136.387097	
4.170000e+002	1.330000e+002	417.000000	136.645161	
4.180000e+002	1.360000e+002	418.000000	136.870968	
4.190000e+002	1.390000e+002	419.000000	137.096774	
4.200000e+002	1.430000e+002	420.000000	137.354839	
4.210000e+002	1.440000e+002	421.000000	137.612903	
4.220000e+002	1.430000e+002	422.000000	137.870968	
4.230000e+002	1.440000e+002	423.000000	138.129032	
4.240000e+002	1.370000e+002	424.000000	138.387097	
4.250000e+002	1.380000e+002	425.000000	138.612903	
4.260000e+002	1.380000e+002	426.000000	138.870968	
4.270000e+002	1.390000e+002	427.000000	139.129032	
4.280000e+002	1.410000e+002	428.000000	139.387097	
4.290000e+002	1.420000e+002	429.000000	139.645161	
4.300000e+002	1.430000e+002	430.000000	139.903226	
4.310000e+002	1.440000e+002	431.000000	140.161290	
4.320000e+002	1.400000e+002	432.000000	140.387097	
4.330000e+002	1.390000e+002	433.000000	140.612903	
4.340000e+002	1.390000e+002	434.000000	140.838710	
4.350000e+002	1.390000e+002	435.000000	141.064516	
4.360000e+002	1.380000e+002	436.000000	141.258065	
4.370000e+002	1.390000e+002	437.000000	141.451613	
4.380000e+002	1.400000e+002	438.000000	141.677419	
4.390000e+002	1.400000e+002	439.000000	141.903226	
4.400000e+002	1.400000e+002	440.000000	142.161290	
4.410000e+002	1.440000e+002	441.000000	142.419355	
4.420000e+002	1.440000e+002	442.000000	142.677419	
4.430000e+002	1.410000e+002	443.000000	142.935484	
4.440000e+002	1.430000e+002	444.000000	143.193548	
4.450000e+002	1.480000e+002	445.000000	143.419355	
4.460000e+002	1.480000e+002	446.000000	143.645161	
4.470000e+002	1.440000e+002	447.000000	143.870968	
4.480000e+002	1.420000e+002	448.000000	144.096774	
4.490000e+002	1.410000e+002	449.000000	144.322581	
4.500000e+002	1.400000e+002	450.000000	144.580645	
4.510000e+002	1.400000e+002	451.000000	144.806452	
4.520000e+002	1.420000e+002	452.000000	145.032258	
4.530000e+002	1.440000e+002	453.000000	145.290323	
4.540000e+002	1.460000e+002	454.000000	145.548387	
4.550000e+002	1.470000e+002	455.000000	145.806452	
4.560000e+002	1.500000e+002	456.000000	146.064516	
4.570000e+002	1.510000e+002	457.000000	146.322581	
4.580000e+002	1.520000e+002	458.000000	146.580645	
4.590000e+002	1.520000e+002	459.000000	146.838710	
4.600000e+002	1.510000e+002	460.000000	147.096774	
4.610000e+002	1.510000e+002	461.000000	147.354839	
4.620000e+002	1.530000e+002	462.000000	147.612903	
4.630000e+002	1.540000e+002	463.000000	147.870968	
4.640000e+002	1.530000e+002	464.000000	148.129032	
4.650000e+002	1.540000e+002	465.000000	148.387097	
4.660000e+002	1.520000e+002	466.000000	148.677419	
4.670000e+002	1.500000e+002	467.000000	148.967742	
4.680000e+002	1.470000e+002	468.000000	149.258065	
4.690000e+002	1.470000e+002	469.000000	149.516129	
4.700000e+002	1.450000e+002	470.000000	149.741935	
4.710000e+002	1.430000e+002	471.000000	149.935484	
4.720000e+002	1.470000e+002	472.000000	150.129032	
4.730000e+002	1.480000e+002	473.000000	150.322581	
4.740000e+002	1.520000e+002	474.000000	150.516129	
4.750000e+002	1.530000e+002	475.000000	150.709677	
4.760000e+002	1.550000e+002	476.000000	150.903226	
4.770000e+002	1.550000e+002	477.000000	151.096774	
4.780000e+002	1.560000e+002	478.000000	151.290323	
4.790000e+002	1.560000e+002	479.000000	151.516129	
4.800000e+002	1.470000e+002	480.000000	151.741935	
4.810000e+002	1.470000e+002	481.000000	151.935484	
4.820000e+002	1.470000e+002	482.000000	152.129032	
4.830000e+002	1.470000e+002	483.000000	152.354839	
4.840000e+002	1.460000e+002	484.000000	152.548387	
4.850000e+002	1.470000e+002	485.000000	152.709677	
4.860000e+002	1.490000e+002	486.000000	152.870968	
4.870000e+002	1.500000e+002	487.000000	153.032258	
4.880000e+002	1.510000e+002	488.000000	153.161290	
4.890000e+002	1.520000e+002	489.000000	153.290323	
4.900000e+002	1.530000e+002	490.000000	153.419355	
4.910000e+002	1.540000e+002	491.000000	153.580645	
4.920000e+002	1.560000e+002	492.000000	153.709677	
4.930000e+002	1.560000e+002	493.000000	153.838710	
4.940000e+002	1.560000e+002	494.000000	153.967742	
4.950000e+002	1.560000e+002	495.000000	154.096774	
4.960000e+002	1.610000e+002	496.000000	154.225806	
4.970000e+002	1.580000e+002	497.000000	154.354839	
4.980000e+002	1.530000e+002	498.000000	154.483871	
4.990000e+002	1.540000e+002	499.000000	154.612903	
5.000000e+002	1.560000e+002	500.000000	154.774194	
5.010000e+002	1.580000e+002	501.000000	154.935484	
5.020000e+002	1.550000e+002	502.000000	155.096774	
5.030000e+002	1.530000e+002	503.000000	155.258065	
5.040000e+002	1.550000e+002	504.000000	155.419355	
5.050000e+002	1.530000e+002	505.000000	155.580645	
5.060000e+002	1.530000e+002	506.000000	155.741935	
5.070000e+002	1.520000e+002	507.000000	155.903226	
5.080000e+002	1.520000e+002	508.000000	156.064516	
5.090000e+002	1.520000e+002	509.000000	156.225806	
5.100000e+002	1.540000e+002	510.000000	156.354839	
5.110000e+002	1.560000e+002	511.000000	156.483871	
5.120000e+002	1.540000e+002	512.000000	156.612903	
5.130000e+002	1.570000e+002	513.000000	156.741935	
5.140000e+002	1.610000e+002	514.000000	156.838710	
5.150000e+002	1.600000e+002	515.000000	156.935484	
5.160000e+002	1.600000e+002	516.000000	157.032258	
5.170000e+002	1.620000e+002	517.000000	157.129032	
5.180000e+002	1.630000e+002	518.000000	157.225806	
5.190000e+002	1.620000e+002	519.000000	157.322581	
5.200000e+002	1.600000e+002	520.000000	157.419355	
5.210000e+002	1.590000e+002	521.000000	157.516129	
5.220000e+002	1.580000e+002	522.000000	157.612903	
5.230000e+002	1.590000e+002	523.000000	157.709677	
5.240000e+002	1.580000e+002	524.000000	157.806452	
5.250000e+002	1.570000e+002	525.000000	157.903226	
5.260000e+002	1.550000e+002	526.000000	158.000000	
5.270000e+002	1.520000e+002	527.000000	158.096774	
5.280000e+002	1.620000e+002	528.000000	158.161290	
5.290000e+002	1.600000e+002	529.000000	158.225806	
5.300000e+002	1.580000e+002	530.000000	158.290323	
5.310000e+002	1.570000e+002	531.000000	158.322581	
5.320000e+002	1.590000e+002	532.000000	158.322581	
5.330000e+002	1.610000e+002	533.000000	158.322581	
5.340000e+002	1.610000e+002	534.000000	158.322581	
5.350000e+002	1.610000e+002	535.000000	158.354839	
5.360000e+002	1.610000e+002	536.000000	158.387097	
5.370000e+002	1.600000e+002	537.000000	158.419355	
5.380000e+002	1.600000e+002	538.000000	158.451613	
5.390000e+002	1.600000e+002	539.000000	158.483871	
5.400000e+002	1.610000e+002	540.000000	158.516129	
5.410000e+002	1.620000e+002	541.000000	158.548387	
5.420000e+002	1.610000e+002	542.000000	158.580645	
5.430000e+002	1.600000e+002	543.000000	158.645161	
5.440000e+002	1.560000e+002	544.000000	158.709677	
5.450000e+002	1.510000e+002	545.000000	158.774194	
5.460000e+002	1.500000e+002	546.000000	158.838710	
5.470000e+002	1.520000e+002	547.000000	158.903226	
5.480000e+002	1.500000e+002	548.000000	158.967742	
5.490000e+002	1.460000e+002	549.000000	159.032258	
5.500000e+002	1.450000e+002	550.000000	159.096774	
5.510000e+002	1.490000e+002	551.000000	159.161290	
5.520000e+002	1.520000e+002	552.000000	159.225806	
5.530000e+002	1.520000e+002	553.000000	159.258065	
5.540000e+002	1.530000e+002	554.000000	159.290323	
5.550000e+002	1.530000e+002	555.000000	159.322581	
5.560000e+002	1.560000e+002	556.000000	159.354839	
5.570000e+002	1.560000e+002	557.000000	159.387097	
5.580000e+002	1.570000e+002	558.000000	159.451613	
5.590000e+002	1.570000e+002	559.000000	159.516129	
5.600000e+002	1.600000e+002	560.000000	159.580645	
5.610000e+002	1.610000e+002	561.000000	159.645161	
5.620000e+002	1.610000e+002	562.000000	159.709677	
5.630000e+002	1.600000e+002	563.000000	159.806452	
5.640000e+002	1.590000e+002	564.000000	159.903226	
5.650000e+002	1.590000e+002	565.000000	160.000000	
5.660000e+002	1.570000e+002	566.000000	160.064516	
5.670000e+002	1.560000e+002	567.000000	160.161290	
5.680000e+002	1.600000e+002	568.000000	160.258065	
5.690000e+002	1.620000e+002	569.000000	160.354839	
5.700000e+002	1.620000e+002	570.000000	160.451613	
5.710000e+002	1.610000e+002	571.000000	160.548387	
5.720000e+002	1.580000e+002	572.000000	160.645161	
5.730000e+002	1.570000e+002	573.000000	160.741935	
5.740000e+002	1.590000e+002	574.000000	160.806452	
5.750000e+002	1.610000e+002	575.000000	160.870968	
5.760000e+002	1.570000e+002	576.000000	160.935484	
5.770000e+002	1.590000e+002	577.000000	161.032258	
5.780000e+002	1.610000e+002	578.000000	161.129032	
5.790000e+002	1.630000e+002	579.000000	161.258065	
5.800000e+002	1.620000e+002	580.000000	161.387097	
5.810000e+002	1.620000e+002	581.000000	161.548387	
5.820000e+002	1.620000e+002	582.000000	161.709677	
5.830000e+002	1.620000e+002	583.000000	161.870968	
5.840000e+002	1.640000e+002	584.000000	162.032258	
5.850000e+002	1.650000e+002	585.000000	162.193548	
5.860000e+002	1.660000e+002	586.000000	162.354839	
5.870000e+002	1.650000e+002	587.000000	162.548387	
5.880000e+002	1.620000e+002	588.000000	162.741935	
5.890000e+002	1.610000e+002	589.000000	162.903226	
5.900000e+002	1.610000e+002	590.000000	163.096774	
5.910000e+002	1.620000e+002	591.000000	163.290323	
5.920000e+002	1.680000e+002	592.000000	163.483871	
5.930000e+002	1.670000e+002	593.000000	163.709677	
5.940000e+002	1.680000e+002	594.000000	163.935484	
5.950000e+002	1.700000e+002	595.000000	164.161290	
5.960000e+002	1.650000e+002	596.000000	164.387097	
5.970000e+002	1.600000e+002	597.000000	164.612903	
5.980000e+002	1.610000e+002	598.000000	164.806452	
5.990000e+002	1.660000e+002	599.000000	165.000000	
6.000000e+002	1.620000e+002	600.000000	165.193548	
6.010000e+002	1.630000e+002	601.000000	165.387097	
6.020000e+002	1.670000e+002	602.000000	165.580645	
6.030000e+002	1.680000e+002	603.000000	165.774194	
6.040000e+002	1.640000e+002	604.000000	165.967742	
6.050000e+002	1.570000e+002	605.000000	166.161290	
6.060000e+002	1.620000e+002	606.000000	166.354839	
6.070000e+002	1.700000e+002	607.000000	166.548387	
6.080000e+002	1.720000e+002	608.000000	166.709677	
6.090000e+002	1.690000e+002	609.000000	166.870968	
6.100000e+002	1.660000e+002	610.000000	167.000000	
6.110000e+002	1.650000e+002	611.000000	167.129032	
6.120000e+002	1.670000e+002	612.000000	167.225806	
6.130000e+002	1.690000e+002	613.000000	167.354839	
6.140000e+002	1.710000e+002	614.000000	167.483871	
6.150000e+002	1.710000e+002	615.000000	167.612903	
6.160000e+002	1.700000e+002	616.000000	167.741935	
6.170000e+002	1.700000e+002	617.000000	167.870968	
6.180000e+002	1.700000e+002	618.000000	167.967742	
6.190000e+002	1.710000e+002	619.000000	168.064516	
6.200000e+002	1.690000e+002	620.000000	168.161290	
6.210000e+002	1.680000e+002	621.000000	168.225806	
6.220000e+002	1.650000e+002	622.000000	168.290323	
6.230000e+002	1.640000e+002	623.000000	168.354839	
6.240000e+002	1.720000e+002	624.000000	168.387097	
6.250000e+002	1.720000e+002	625.000000	168.419355	
6.260000e+002	1.710000e+002	626.000000	168.451613	
6.270000e+002	1.700000e+002	627.000000	168.483871	
6.280000e+002	1.690000e+002	628.000000	168.516129	
6.290000e+002	1.690000e+002	629.000000	168.548387	
6.300000e+002	1.680000e+002	630.000000	168.580645	
6.310000e+002	1.680000e+002	631.000000	168.612903	
6.320000e+002	1.770000e+002	632.000000	168.645161	
6.330000e+002	1.750000e+002	633.000000	168.677419	
6.340000e+002	1.710000e+002	634.000000	168.709677	
6.350000e+002	1.690000e+002	635.000000	168.741935	
6.360000e+002	1.700000e+002	636.000000	168.774194	
6.370000e+002	1.690000e+002	637.000000	168.806452	
6.380000e+002	1.670000e+002	638.000000	168.838710	
6.390000e+002	1.650000e+002	639.000000	168.903226	
6.400000e+002	1.680000e+002	640.000000	168.967742	
6.410000e+002	1.680000e+002	641.000000	169.032258	
6.420000e+002	1.660000e+002	642.000000	169.096774	
6.430000e+002	1.670000e+002	643.000000	169.161290	
6.440000e+002	1.670000e+002	644.000000	169.193548	
6.450000e+002	1.670000e+002	645.000000	169.225806	
6.460000e+002	1.640000e+002	646.000000	169.258065	
6.470000e+002	1.630000e+002	647.000000	169.290323	
6.480000e+002	1.680000e+002	648.000000	169.322581	
6.490000e+002	1.630000e+002	649.000000	169.387097	
6.500000e+002	1.640000e+002	650.000000	169.483871	
6.510000e+002	1.700000e+002	651.000000	169.580645	
6.520000e+002	1.750000e+002	652.000000	169.677419	
6.530000e+002	1.690000e+002	653.000000	169.806452	
6.540000e+002	1.650000e+002	654.000000	169.935484	
6.550000e+002	1.640000e+002	655.000000	170.064516	
6.560000e+002	1.640000e+002	656.000000	170.225806	
6.570000e+002	1.700000e+002	657.000000	170.387097	
6.580000e+002	1.720000e+002	658.000000	170.548387	
6.590000e+002	1.730000e+002	659.000000	170.709677	
6.600000e+002	1.690000e+002	660.000000	170.870968	
6.610000e+002	1.680000e+002	661.000000	171.032258	
6.620000e+002	1.680000e+002	662.000000	171.225806	
6.630000e+002	1.710000e+002	663.000000	171.419355	
6.640000e+002	1.700000e+002	664.000000	171.612903	
6.650000e+002	1.700000e+002	665.000000	171.806452	
6.660000e+002	1.720000e+002	666.000000	172.000000	
6.670000e+002	1.720000e+002	667.000000	172.193548	
6.680000e+002	1.740000e+002	668.000000	172.387097	
6.690000e+002	1.740000e+002	669.000000	172.580645	
6.700000e+002	1.760000e+002	670.000000	172.741935	
6.710000e+002	1.760000e+002	671.000000	172.903226	
6.720000e+002	1.700000e+002	672.000000	173.064516	
6.730000e+002	1.700000e+002	673.000000	173.258065	
6.740000e+002	1.730000e+002	674.000000	173.451613	
6.750000e+002	1.740000e+002	675.000000	173.645161	
6.760000e+002	1.790000e+002	676.000000	173.838710	
6.770000e+002	1.800000e+002	677.000000	174.032258	
6.780000e+002	1.810000e+002	678.000000	174.225806	
6.790000e+002	1.800000e+002	679.000000	174.419355	
6.800000e+002	1.760000e+002	680.000000	174.580645	
6.810000e+002	1.760000e+002	681.000000	174.709677	
6.820000e+002	1.760000e+002	682.000000	174.838710	
6.830000e+002	1.760000e+002	683.000000	174.967742	
6.840000e+002	1.780000e+002	684.000000	175.064516	
6.850000e+002	1.780000e+002	685.000000	175.161290	
6.860000e+002	1.790000e+002	686.000000	175.258065	
6.870000e+002	1.790000e+002	687.000000	175.322581	
6.880000e+002	1.790000e+002	688.000000	175.387097	
6.890000e+002	1.780000e+002	689.000000	175.451613	
6.900000e+002	1.770000e+002	690.000000	175.516129	
6.910000e+002	1.790000e+002	691.000000	175.580645	
6.920000e+002	1.800000e+002	692.000000	175.645161	
6.930000e+002	1.790000e+002	693.000000	175.677419	
6.940000e+002	1.750000e+002	694.000000	175.709677	
6.950000e+002	1.720000e+002	695.000000	175.741935	
6.960000e+002	1.740000e+002	696.000000	175.774194	
6.970000e+002	1.740000e+002	697.000000	175.806452	
6.980000e+002	1.750000e+002	698.000000	175.838710	
6.990000e+002	1.750000e+002	699.000000	175.870968	
7.000000e+002	1.750000e+002	700.000000	175.903226	
7.010000e+002	1.740000e+002	701.000000	175.935484	
7.020000e+002	1.750000e+002	702.000000	175.967742	
7.030000e+002	1.750000e+002	703.000000	176.000000	
7.040000e+002	1.850000e+002	704.000000	175.967742	
7.050000e+002	1.840000e+002	705.000000	175.935484	
7.060000e+002	1.810000e+002	706.000000	175.935484	
7.070000e+002	1.800000e+002	707.000000	175.935484	
7.080000e+002	1.770000e+002	708.000000	175.935484	
7.090000e+002	1.750000e+002	709.000000	175.935484	
7.100000e+002	1.740000e+002	710.000000	175.935484	
7.110000e+002	1.740000e+002	711.000000	175.935484	
7.120000e+002	1.740000e+002	712.000000	175.935484	
7.130000e+002	1.760000e+002	713.000000	175.935484	
7.140000e+002	1.760000e+002	714.000000	175.935484	
7.150000e+002	1.720000e+002	715.000000	175.935484	
7.160000e+002	1.720000e+002	716.000000	175.935484	
7.170000e+002	1.770000e+002	717.000000	175.935484	
7.180000e+002	1.760000e+002	718.000000	175.935484	
7.190000e+002	1.720000e+002	719.000000	175.935484	
7.200000e+002	1.760000e+002	720.000000	175.935484	
7.210000e+002	1.750000e+002	721.000000	175.935484	
7.220000e+002	1.740000e+002	722.000000	175.935484	
7.230000e+002	1.760000e+002	723.000000	175.935484	
7.240000e+002	1.790000e+002	724.000000	175.935484	
7.250000e+002	1.810000e+002	725.000000	175.935484	
7.260000e+002	1.800000e+002	726.000000	175.935484	
7.270000e+002	1.790000e+002	727.000000	175.935484	
7.280000e+002	1.720000e+002	728.000000	175.935484	
7.290000e+002	1.730000e+002	729.000000	175.935484	
7.300000e+002	1.730000e+002	730.000000	175.967742	
7.310000e+002	1.760000e+002	731.000000	176.000000	
7.320000e+002	1.760000e+002	732.000000	176.032258	
7.330000e+002	1.780000e+002	733.000000	176.064516	
7.340000e+002	1.780000e+002	734.000000	176.096774	
7.350000e+002	1.780000e+002	735.000000	176.161290	
7.360000e+002	1.770000e+002	736.000000	176.225806	
7.370000e+002	1.780000e+002	737.000000	176.258065	
7.380000e+002	1.780000e+002	738.000000	176.290323	
7.390000e+002	1.780000e+002	739.000000	176.322581	
7.400000e+002	1.760000e+002	740.000000	176.354839	
7.410000e+002	1.750000e+002	741.000000	176.387097	
7.420000e+002	1.740000e+002	742.000000	176.419355	
7.430000e+002	1.730000e+002	743.000000	176.451613	
7.440000e+002	1.750000e+002	744.000000	176.483871	
7.450000e+002	1.740000e+002	745.000000	176.516129	
7.460000e+002	1.760000e+002	746.000000	176.548387	
7.470000e+002	1.760000e+002	747.000000	176.580645	
7.480000e+002	1.780000e+002	748.000000	176.612903	
7.490000e+002	1.790000e+002	749.000000	176.645161	
7.500000e+002	1.800000e+002	750.000000	176.645161	
7.510000e+002	1.810000e+002	751.000000	176.645161	
7.520000e+002	1.790000e+002	752.000000	176.645161	
7.530000e+002	1.790000e+002	753.000000	176.645161	
7.540000e+002	1.770000e+002	754.000000	176.645161	
7.550000e+002	1.770000e+002	755.000000	176.645161	
7.560000e+002	1.770000e+002	756.000000	176.645161	
7.570000e+002	1.770000e+002	757.000000	176.645161	
7.580000e+002	1.770000e+002	758.000000	176.645161	
7.590000e+002	1.770000e+002	759.000000	176.645161	
7.600000e+002	1.760000e+002	760.000000	176.645161	
7.610000e+002	1.750000e+002	761.000000	176.612903	
7.620000e+002	1.750000e+002	762.000000	176.548387	
7.630000e+002	1.730000e+002	763.000000	176.483871	
7.640000e+002	1.720000e+002	764.000000	176.387097	
7.650000e+002	1.710000e+002	765.000000	176.290323	
7.660000e+002	1.710000e+002	766.000000	176.193548	
7.670000e+002	1.710000e+002	767.000000	176.096774	
7.680000e+002	1.800000e+002	768.000000	176.000000	
7.690000e+002	1.780000e+002	769.000000	175.903226	
7.700000e+002	1.770000e+002	770.000000	175.806452	
7.710000e+002	1.760000e+002	771.000000	175.709677	
7.720000e+002	1.770000e+002	772.000000	175.612903	
7.730000e+002	1.780000e+002	773.000000	175.516129	
7.740000e+002	1.800000e+002	774.000000	175.419355	
7.750000e+002	1.820000e+002	775.000000	175.322581	
7.760000e+002	1.780000e+002	776.000000	175.225806	
7.770000e+002	1.800000e+002	777.000000	175.129032	
7.780000e+002	1.810000e+002	778.000000	175.032258	
7.790000e+002	1.780000e+002	779.000000	174.903226	
7.800000e+002	1.740000e+002	780.000000	174.774194	
7.810000e+002	1.710000e+002	781.000000	174.677419	
7.820000e+002	1.740000e+002	782.000000	174.580645	
7.830000e+002	1.760000e+002	783.000000	174.451613	
7.840000e+002	1.740000e+002	784.000000	174.322581	
7.850000e+002	1.760000e+002	785.000000	174.193548	
7.860000e+002	1.780000e+002	786.000000	174.032258	
7.870000e+002	1.770000e+002	787.000000	173.870968	
7.880000e+002	1.730000e+002	788.000000	173.709677	
7.890000e+002	1.720000e+002	789.000000	173.548387	
7.900000e+002	1.730000e+002	790.000000	173.387097	
7.910000e+002	1.740000e+002	791.000000	173.193548	
7.920000e+002	1.710000e+002	792.000000	173.000000	
7.930000e+002	1.690000e+002	793.000000	172.838710	
7.940000e+002	1.690000e+002	794.000000	172.677419	
7.950000e+002	1.700000e+002	795.000000	172.548387	
7.960000e+002	1.730000e+002	796.000000	172.419355	
7.970000e+002	1.740000e+002	797.000000	172.290323	
7.980000e+002	1.710000e+002	798.000000	172.161290	
7.990000e+002	1.680000e+002	799.000000	172.032258	
8.000000e+002	1.730000e+002	800.000000	171.870968	
8.010000e+002	1.740000e+002	801.000000	171.709677	
8.020000e+002	1.690000e+002	802.000000	171.548387	
8.030000e+002	1.700000e+002	803.000000	171.387097	
8.040000e+002	1.680000e+002	804.000000	171.225806	
8.050000e+002	1.690000e+002	805.000000	171.096774	
8.060000e+002	1.700000e+002	806.000000	170.967742	
8.070000e+002	1.710000e+002	807.000000	170.838710	
8.080000e+002	1.760000e+002	808.000000	170.677419	
8.090000e+002	1.740000e+002	809.000000	170.516129	
8.100000e+002	1.750000e+002	810.000000	170.387097	
8.110000e+002	1.750000e+002	811.000000	170.258065	
8.120000e+002	1.720000e+002	812.000000	170.129032	
8.130000e+002	1.720000e+002	813.000000	170.000000	
8.140000e+002	1.650000e+002	814.000000	169.903226	
8.150000e+002	1.630000e+002	815.000000	169.806452	
8.160000e+002	1.680000e+002	816.000000	169.709677	
8.170000e+002	1.690000e+002	817.000000	169.645161	
8.180000e+002	1.700000e+002	818.000000	169.580645	
8.190000e+002	1.710000e+002	819.000000	169.516129	
8.200000e+002	1.690000e+002	820.000000	169.451613	
8.210000e+002	1.690000e+002	821.000000	169.387097	
8.220000e+002	1.670000e+002	822.000000	169.354839	
8.230000e+002	1.660000e+002	823.000000	169.322581	
8.240000e+002	1.670000e+002	824.000000	169.290323	
8.250000e+002	1.700000e+002	825.000000	169.258065	
8.260000e+002	1.690000e+002	826.000000	169.225806	
8.270000e+002	1.640000e+002	827.000000	169.193548	
8.280000e+002	1.630000e+002	828.000000	169.161290	
8.290000e+002	1.650000e+002	829.000000	169.129032	
8.300000e+002	1.650000e+002	830.000000	169.096774	
8.310000e+002	1.610000e+002	831.000000	169.064516	
8.320000e+002	1.680000e+002	832.000000	169.032258	
8.330000e+002	1.690000e+002	833.000000	169.000000	
8.340000e+002	1.700000e+002	834.000000	168.967742	
8.350000e+002	1.710000e+002	835.000000	168.935484	
8.360000e+002	1.700000e+002	836.000000	168.870968	
8.370000e+002	1.700000e+002	837.000000	168.806452	
8.380000e+002	1.670000e+002	838.000000	168.741935	
8.390000e+002	1.670000e+002	839.000000	168.709677	
8.400000e+002	1.690000e+002	840.000000	168.677419	
8.410000e+002	1.700000e+002	841.000000	168.645161	
8.420000e+002	1.700000e+002	842.000000	168.612903	
8.430000e+002	1.670000e+002	843.000000	168.580645	
8.440000e+002	1.710000e+002	844.000000	168.548387	
8.450000e+002	1.740000e+002	845.000000	168.483871	
8.460000e+002	1.740000e+002	846.000000	168.419355	
8.470000e+002	1.700000e+002	847.000000	168.354839	
8.480000e+002	1.660000e+002	848.000000	168.290323	
8.490000e+002	1.600000e+002	849.000000	168.225806	
8.500000e+002	1.580000e+002	850.000000	168.161290	
8.510000e+002	1.630000e+002	851.000000	168.096774	
8.520000e+002	1.670000e+002	852.000000	168.000000	
8.530000e+002	1.670000e+002	853.000000	167.903226	
8.540000e+002	1.680000e+002	854.000000	167.806452	
8.550000e+002	1.700000e+002	855.000000	167.709677	
8.560000e+002	1.680000e+002	856.000000	167.612903	
8.570000e+002	1.680000e+002	857.000000	167.483871	
8.580000e+002	1.690000e+002	858.000000	167.354839	
8.590000e+002	1.680000e+002	859.000000	167.225806	
8.600000e+002	1.690000e+002	860.000000	167.096774	
8.610000e+002	1.690000e+002	861.000000	166.967742	
8.620000e+002	1.690000e+002	862.000000	166.870968	
8.630000e+002	1.690000e+002	863.000000	166.774194	
8.640000e+002	1.700000e+002	864.000000	166.645161	
8.650000e+002	1.730000e+002	865.000000	166.516129	
8.660000e+002	1.720000e+002	866.000000	166.322581	
8.670000e+002	1.690000e+002	867.000000	166.129032	
8.680000e+002	1.620000e+002	868.000000	165.935484	
8.690000e+002	1.580000e+002	869.000000	165.741935	
8.700000e+002	1.570000e+002	870.000000	165.548387	
8.710000e+002	1.580000e+002	871.000000	165.322581	
8.720000e+002	1.640000e+002	872.000000	165.096774	
8.730000e+002	1.650000e+002	873.000000	164.870968	
8.740000e+002	1.670000e+002	874.000000	164.645161	
8.750000e+002	1.660000e+002	875.000000	164.419355	
8.760000e+002	1.660000e+002	876.000000	164.225806	
8.770000e+002	1.650000e+002	877.000000	164.032258	
8.780000e+002	1.650000e+002	878.000000	163.838710	
8.790000e+002	1.670000e+002	879.000000	163.645161	
8.800000e+002	1.680000e+002	880.000000	163.451613	
8.810000e+002	1.660000e+002	881.000000	163.258065	
8.820000e+002	1.610000e+002	882.000000	163.064516	
8.830000e+002	1.610000e+002	883.000000	162.903226	
8.840000e+002	1.580000e+002	884.000000	162.741935	
8.850000e+002	1.610000e+002	885.000000	162.580645	
8.860000e+002	1.640000e+002	886.000000	162.419355	
8.870000e+002	1.660000e+002	887.000000	162.258065	
8.880000e+002	1.570000e+002	888.000000	162.129032	
8.890000e+002	1.560000e+002	889.000000	162.000000	
8.900000e+002	1.570000e+002	890.000000	161.870968	
8.910000e+002	1.550000e+002	891.000000	161.741935	
8.920000e+002	1.550000e+002	892.000000	161.612903	
8.930000e+002	1.580000e+002	893.000000	161.483871	
8.940000e+002	1.620000e+002	894.000000	161.354839	
8.950000e+002	1.650000e+002	895.000000	161.258065	
8.960000e+002	1.600000e+002	896.000000	161.161290	
8.970000e+002	1.590000e+002	897.000000	161.129032	
8.980000e+002	1.580000e+002	898.000000	161.096774	
8.990000e+002	1.580000e+002	899.000000	161.064516	
9.000000e+002	1.600000e+002	900.000000	161.032258	
9.010000e+002	1.620000e+002	901.000000	161.000000	
9.020000e+002	1.620000e+002	902.000000	161.000000	
9.030000e+002	1.610000e+002	903.000000	161.000000	
9.040000e+002	1.590000e+002	904.000000	161.000000	
9.050000e+002	1.600000e+002	905.000000	161.000000	
9.060000e+002	1.610000e+002	906.000000	161.000000	
9.070000e+002	1.620000e+002	907.000000	161.000000	
9.080000e+002	1.610000e+002	908.000000	161.000000	
9.090000e+002	1.610000e+002	909.000000	161.000000	
9.100000e+002	1.600000e+002	910.000000	161.000000	
9.110000e+002	1.600000e+002	911.000000	161.000000	
9.120000e+002	1.610000e+002	912.000000	161.000000	
9.130000e+002	1.610000e+002	913.000000	161.000000	
9.140000e+002	1.610000e+002	914.000000	161.000000	
9.150000e+002	1.610000e+002	915.000000	161.032258	
9.160000e+002	1.610000e+002	916.000000	161.064516	
9.170000e+002	1.610000e+002	917.000000	161.096774	
9.180000e+002	1.600000e+002	918.000000	161.161290	
9.190000e+002	1.610000e+002	919.000000	161.225806	
9.200000e+002	1.570000e+002	920.000000	161.290323	
9.210000e+002	1.590000e+002	921.000000	161.354839	
9.220000e+002	1.600000e+002	922.000000	161.419355	
9.230000e+002	1.600000e+002	923.000000	161.483871	
9.240000e+002	1.580000e+002	924.000000	161.548387	
9.250000e+002	1.580000e+002	925.000000	161.612903	
9.260000e+002	1.600000e+002	926.000000	161.677419	
9.270000e+002	1.630000e+002	927.000000	161.741935	
9.280000e+002	1.640000e+002	928.000000	161.806452	
9.290000e+002	1.630000e+002	929.000000	161.870968	
9.300000e+002	1.630000e+002	930.000000	161.935484	
9.310000e+002	1.620000e+002	931.000000	162.000000	
9.320000e+002	1.610000e+002	932.000000	162.064516	
9.330000e+002	1.610000e+002	933.000000	162.129032	
9.340000e+002	1.590000e+002	934.000000	162.193548	
9.350000e+002	1.600000e+002	935.000000	162.258065	
9.360000e+002	1.640000e+002	936.000000	162.322581	
9.370000e+002	1.640000e+002	937.000000	162.387097	
9.380000e+002	1.640000e+002	938.000000	162.451613	
9.390000e+002	1.640000e+002	939.000000	162.516129	
9.400000e+002	1.660000e+002	940.000000	162.580645	
9.410000e+002	1.650000e+002	941.000000	162.645161	
9.420000e+002	1.660000e+002	942.000000	162.709677	
9.430000e+002	1.660000e+002	943.000000	162.774194	
9.440000e+002	1.670000e+002	944.000000	162.838710	
9.450000e+002	1.650000e+002	945.000000	162.903226	
9.460000e+002	1.630000e+002	946.000000	162.935484	
9.470000e+002	1.640000e+002	947.000000	162.935484	
9.480000e+002	1.640000e+002	948.000000	162.935484	
9.490000e+002	1.650000e+002	949.000000	162.903226	
9.500000e+002	1.630000e+002	950.000000	162.838710	
9.510000e+002	1.620000e+002	951.000000	162.774194	
9.520000e+002	1.640000e+002	952.000000	162.709677	
9.530000e+002	1.650000e+002	953.000000	162.645161	
9.540000e+002	1.650000e+002	954.000000	162.580645	
9.550000e+002	1.660000e+002	955.000000	162.516129	
9.560000e+002	1.660000e+002	956.000000	162.451613	
9.570000e+002	1.660000e+002	957.000000	162.387097	
9.580000e+002	1.640000e+002	958.000000	162.322581	
9.590000e+002	1.640000e+002	959.000000	162.258065	
9.600000e+002	1.650000e+002	960.000000	162.161290	
9.610000e+002	1.640000e+002	961.000000	162.064516	
9.620000e+002	1.630000e+002	962.000000	161.935484	
9.630000e+002	1.620000e+002	963.000000	161.806452	
9.640000e+002	1.610000e+002	964.000000	161.677419	
9.650000e+002	1.600000e+002	965.000000	161.516129	
9.660000e+002	1.610000e+002	966.000000	161.354839	
9.670000e+002	1.610000e+002	967.000000	161.161290	
9.680000e+002	1.610000e+002	968.000000	160.967742	
9.690000e+002	1.610000e+002	969.000000	160.741935	
9.700000e+002	1.610000e+002	970.000000	160.483871	
9.710000e+002	1.610000e+002	971.000000	160.225806	
9.720000e+002	1.590000e+002	972.000000	159.967742	
9.730000e+002	1.600000e+002	973.000000	159.709677	
9.740000e+002	1.580000e+002	974.000000	159.419355	
9.750000e+002	1.590000e+002	975.000000	159.129032	
9.760000e+002	1.610000e+002	976.000000	158.838710	
9.770000e+002	1.610000e+002	977.000000	158.516129	
9.780000e+002	1.570000e+002	978.000000	158.225806	
9.790000e+002	1.560000e+002	979.000000	157.935484	
9.800000e+002	1.540000e+002	980.000000	157.645161	
9.810000e+002	1.530000e+002	981.000000	157.354839	
9.820000e+002	1.550000e+002	982.000000	157.064516	
9.830000e+002	1.540000e+002	983.000000	156.774194	
9.840000e+002	1.580000e+002	984.000000	156.483871	
9.850000e+002	1.590000e+002	985.000000	156.193548	
9.860000e+002	1.620000e+002	986.000000	155.903226	
9.870000e+002	1.610000e+002	987.000000	155.612903	
9.880000e+002	1.550000e+002	988.000000	155.322581	
9.890000e+002	1.550000e+002	989.000000	155.032258	
9.900000e+002	1.510000e+002	990.000000	154.741935	
9.910000e+002	1.530000e+002	991.000000	154.483871	
9.920000e+002	1.570000e+002	992.000000	154.225806	
9.930000e+002	1.550000e+002	993.000000	154.000000	
9.940000e+002	1.530000e+002	994.000000	153.774194	
9.950000e+002	1.520000e+002	995.000000	153.548387	
9.960000e+002	1.530000e+002	996.000000	153.354839	
9.970000e+002	1.540000e+002	997.000000	153.161290	
9.980000e+002	1.520000e+002	998.000000	153.000000	
9.990000e+002	1.510000e+002	999.000000	152.838710	
1.000000e+003	1.480000e+002	1000.000000	152.709677	
1.001000e+003	1.480000e+002	1001.000000	152.612903	
1.002000e+003	1.450000e+002	1002.000000	152.516129	
1.003000e+003	1.440000e+002	1003.000000	152.419355	
1.004000e+003	1.420000e+002	1004.000000	152.322581	
1.005000e+003	1.420000e+002	1005.000000	152.258065	
1.006000e+003	1.420000e+002	1006.000000	152.193548	
1.007000e+003	1.420000e+002	1007.000000	152.129032	
1.008000e+003	1.420000e+002	1008.000000	152.096774	
1.009000e+003	1.440000e+002	
1.010000e+003	1.440000e+002	
1.011000e+003	1.460000e+002	
1.012000e+003	1.470000e+002	
1.013000e+003	1.460000e+002	
1.014000e+003	1.440000e+002	
1.015000e+003	1.430000e+002	
1.016000e+003	1.420000e+002	
1.017000e+003	1.430000e+002	
1.018000e+003	1.430000e+002	
1.019000e+003	1.420000e+002	
1.020000e+003	1.410000e+002	
1.021000e+003	1.440000e+002	
1.022000e+003	1.480000e+002	
1.023000e+003	1.520000e+002	
